Flux density B	Hall voltage UH	Sample voltage Up
B/mT	UH/mV	Up/V

-300.238	81.679	1.693
-283.932	75.839	1.693
-267.093	70.200	1.691
-240.152	61.904	1.687
-213.742	57.569	1.686
-198.144	52.913	1.684
-180.242	45.262	1.680
-153.123	38.680	1.679
-140.716	32.787	1.678
-120.687	26.589	1.679
-100.765	20.325	1.677
-78.733	13.488	1.672
-59.892	7.644	1.673
-39.597	1.502	1.674
-18.505	-4.792	1.672
0.452	-10.904	1.671
20.295	-16.099	1.672
40.483	-22.049	1.670
54.681	-26.109	1.674
80.559	-33.833	1.674
101.633	-40.196	1.676
118.419	-45.305	1.676
140.929	-52.112	1.680
160.249	-58.088	1.682
180.809	-64.482	1.683
201.193	-70.686	1.686
222.108	-77.139	1.689
239.478	-82.387	1.691
254.012	-86.911	1.691
280.422	-94.873	1.695
299.919	-100.882	1.701
