Flux density B	Hall voltage UH	Sample voltage Up
B/mT	UH/mV	Up/V

-302.188	78.668	1.663
-283.045	73.201	1.661
-267.448	68.638	1.662
-247.596	62.486	1.657
-219.414	56.252	1.654
-193.181	50.236	1.657
-178.824	45.745	1.652
-160.036	40.064	1.650
-139.830	33.928	1.649
-128.132	28.174	1.649
-99.418	19.580	1.645
-79.956	13.607	1.646
-59.041	7.174	1.645
-39.242	1.238	1.645
-20.348	-4.358	1.645
-0.147	-10.152	1.644
20.277	-15.993	1.645
32.932	-19.646	1.646
59.555	-27.386	1.646
80.576	-33.637	1.654
99.560	-39.190	1.652
115.760	-44.041	1.652
140.220	-51.384	1.653
160.426	-57.519	1.654
182.050	-64.068	1.658
199.420	-67.466	1.657
214.132	-73.833	1.660
240.719	-79.925	1.661
261.811	-86.008	1.666
280.954	-94.125	1.672
305.591	-99.264	1.671
