Flux density B	Hall voltage UH	Sample voltage Up
B/mT	UH/mV	Up/V

-303.074	79.671	1.649
-279.146	72.721	1.646
-261.067	66.983	1.645
-244.760	61.973	1.643
-213.919	56.957	1.642
-199.030	49.845	1.641
-174.570	44.491	1.642
-160.568	38.306	1.639
-138.766	31.622	1.640
-120.865	26.145	1.635
-99.949	19.736	1.638
-76.252	12.366	1.637
-59.519	7.250	1.638
-40.200	1.420	1.636
-19.958	-4.610	1.637
-0.119	-10.338	1.638
19.231	-15.900	1.639
40.022	-21.807	1.635
59.555	-27.519	1.640
81.445	-33.962	1.637
100.180	-39.541	1.639
119.837	-45.285	1.641
140.929	-51.808	1.643
159.008	-57.152	1.643
180.278	-63.737	1.648
199.243	-69.485	1.649
219.272	-75.471	1.655
239.833	-81.812	1.657
259.861	-87.748	1.660
280.422	-93.926	1.662
300.805	-100.055	1.666
