Flux density B	Hall voltage UH	Sample voltage Up
B/mT	UH/mV	Up/V

-301.302	-61.024	1.569
-278.969	-56.857	1.565
-258.940	-53.257	1.558
-240.506	-49.921	1.554
-219.945	-46.404	1.551
-199.030	-42.195	1.546
-180.419	-38.343	1.544
-160.391	-34.024	1.540
-139.475	-29.567	1.537
-120.865	-25.335	1.534
-99.949	-20.490	1.533
-80.470	-15.933	1.531
-60.033	-11.112	1.529
-39.491	-6.261	1.528
-20.135	-1.790	1.529
-0.532	2.651	1.527
19.568	7.115	1.528
40.714	11.794	1.530
56.648	15.368	1.533
80.825	20.761	1.532
99.808	25.024	1.535
120.723	29.696	1.535
142.170	34.428	1.542
162.730	38.968	1.542
180.455	42.787	1.547
199.775	46.930	1.551
219.981	51.113	1.556
240.010	55.252	1.557
259.861	59.157	1.567
279.713	63.089	1.572
299.387	66.891	1.574
