Flux density B	Hall voltage UH	Sample voltage Up
B/mT	UH/mV	Up/V

-300.593	-60.306	1.552
-277.373	-56.672	1.550
-260.180	-52.827	1.544
-247.064	-50.242	1.542
-219.945	-46.179	1.537
-201.157	-42.397	1.535
-179.888	-38.124	1.530
-160.391	-34.021	1.528
-140.539	-29.789	1.525
-120.333	-25.156	1.520
-100.481	-20.629	1.518
-80.399	-15.904	1.519
-60.353	-11.162	1.517
-40.802	-6.575	1.514
-20.490	-1.890	1.514
3.586	3.544	1.515
20.082	7.191	1.516
40.448	11.668	1.517
59.839	15.933	1.513
79.407	20.252	1.521
100.144	24.911	1.520
119.837	29.226	1.524
139.688	33.621	1.526
160.249	38.151	1.532
180.278	42.575	1.533
200.307	46.629	1.539
218.917	50.534	1.542
244.973	55.875	1.545
259.330	58.727	1.549
279.181	62.506	1.557
300.274	66.504	1.560
