Flux density B	Hall voltage UH	Sample voltage Up
B/mT	UH/mV	Up/V

-301.656	-60.170	1.547
-281.627	-56.288	1.543
-261.953	-52.751	1.538
-240.861	-49.395	1.535
-219.768	-45.752	1.533
-200.448	-41.933	1.525
-180.774	-37.909	1.523
-153.123	-33.651	1.519
-139.830	-29.243	1.516
-119.801	-24.855	1.515
-100.641	-20.407	1.514
-80.913	-15.818	1.512
-61.451	-11.268	1.509
-40.270	-6.340	1.506
-20.472	-1.850	1.506
0.661	2.902	1.506
22.280	7.631	1.508
39.739	11.407	1.503
59.963	15.871	1.508
80.931	20.487	1.514
101.066	24.957	1.511
119.482	29.008	1.516
140.220	33.498	1.517
160.958	38.022	1.521
180.455	42.248	1.526
200.838	46.487	1.530
222.640	51.083	1.531
240.719	54.584	1.538
263.584	59.111	1.541
279.536	62.139	1.546
299.742	66.083	1.554
